Time(s),Position(V)
0.358000,-5.185110
3.382000,-5.195553
6.380000,-5.185467
9.381000,-5.182553
12.381000,-5.186096
15.381000,-5.176465
18.380000,-5.142970
21.381000,-5.108802
24.380000,-5.076181
27.379000,-5.027667
30.380000,-4.992642
33.380000,-4.935304
36.379000,-4.891264
39.379000,-4.870847
42.379000,-4.818386
45.377000,-4.751362
48.377000,-4.672726
51.378000,-4.613443
54.378000,-4.569834
57.378000,-4.525754
60.378000,-4.449157
63.376000,-4.350426
66.376000,-4.273221
69.376000,-4.221498
72.376000,-4.144892
75.376000,-4.055697
78.376000,-3.953981
81.376000,-3.870664
84.376000,-3.810174
87.374000,-3.716879
90.375000,-3.589433
93.375000,-3.493871
96.375000,-3.421649
99.375000,-3.308158
102.373000,-3.179462
105.373000,-3.073307
108.374000,-2.988813
111.374000,-2.894940
114.374000,-2.769140
117.372000,-2.643428
120.372000,-2.539527
123.372000,-2.448537
126.372000,-2.332979
129.373000,-2.196766
132.373000,-2.080110
135.371000,-1.981339
138.371000,-1.881160
141.371000,-1.762522
144.370000,-1.631537
147.371000,-1.504724
150.371000,-1.396917
153.371000,-1.290354
156.369000,-1.190954
159.369000,-1.073914
162.369000,-0.939567
165.369000,-0.816520
168.370000,-0.724272
171.370000,-0.594389
174.368000,-0.502539
177.368000,-0.375753
180.368000,-0.270091
183.368000,-0.147336
186.369000,-0.039073
189.367000,0.072143
192.367000,0.184438
195.367000,0.286942
198.366000,0.384041
201.366000,0.490903
204.366000,0.596755
207.367000,0.700731
210.367000,0.793801
213.365000,0.873288
216.365000,0.980731
219.365000,1.067339
222.365000,1.160345
225.366000,1.245284
228.364000,1.329359
231.364000,1.413622
234.364000,1.491225
237.364000,1.567434
240.364000,1.638030
243.364000,1.715970
246.363000,1.789385
249.363000,1.854767
252.362000,1.909321
255.362000,1.980271
258.362000,2.041349
261.362000,2.098559
264.362000,2.147708
267.362000,2.196375
270.362000,2.252017
273.362000,2.295493
276.360000,2.338727
279.360000,2.356248
282.360000,2.401526
285.360000,2.429833
288.360000,2.458263
291.360000,2.477106
294.360000,2.498342
297.360000,2.513110
300.358000,2.528785
303.359000,2.516101
306.359000,2.538259
309.359000,2.521421
312.359000,2.527534
315.357000,2.536063
318.357000,2.511291
321.357000,2.503088
324.358000,2.491465
327.358000,2.473982
330.358000,2.457035
333.356000,2.436499
336.357000,2.410514
339.355000,2.382020
342.356000,2.351363
345.356000,2.316798
348.355000,2.276507
351.355000,2.233813
354.355000,2.189355
357.355000,2.140903
360.355000,2.091434
363.354000,2.039252
366.354000,1.982382
369.354000,1.922559
372.354000,1.860311
375.354000,1.798801
378.354000,1.731947
381.353000,1.663710
384.353000,1.594460
387.353000,1.522717
390.353000,1.447290
393.353000,1.372839
396.351000,1.295657
399.351000,1.214675
402.352000,1.135464
405.352000,1.054659
408.352000,0.969095
411.352000,0.881195
414.350000,0.796188
417.350000,0.706279
420.351000,0.616265
423.350000,0.523480
426.350000,0.429277
429.350000,0.332831
432.350000,0.235141
435.348000,0.136832
438.348000,0.036911
441.349000,-0.063220
444.349000,-0.166621
447.349000,-0.267830
450.347000,-0.366836
453.347000,-0.472794
456.347000,-0.563556
459.348000,-0.673025
462.348000,-0.778269
465.348000,-0.885264
468.346000,-0.996603
471.347000,-1.112644
474.345000,-1.219883
477.345000,-1.315544
480.346000,-1.409947
483.345000,-1.508864
486.345000,-1.617436
489.345000,-1.732522
492.345000,-1.850255
495.345000,-1.952487
498.343000,-2.041390
501.344000,-2.130442
504.344000,-2.233745
507.344000,-2.353610
510.344000,-2.465629
513.342000,-2.551506
516.343000,-2.632753
519.344000,-2.725171
522.342000,-2.836969
525.342000,-2.949920
528.342000,-3.032343
531.342000,-3.103368
534.342000,-3.189500
537.341000,-3.305051
540.341000,-3.407552
543.341000,-3.478723
546.341000,-3.545135
549.341000,-3.625090
552.341000,-3.730188
555.339000,-3.819454
558.340000,-3.881950
561.340000,-3.939129
564.340000,-4.011238
567.340000,-4.106179
570.338000,-4.184206
573.338000,-4.239216
576.338000,-4.288896
579.339000,-4.341030
582.339000,-4.414612
585.337000,-4.494951
588.337000,-4.548496
591.337000,-4.588436
594.337000,-4.628353
597.338000,-4.669313
600.338000,-4.719530
603.336000,-4.781553
606.336000,-4.836179
609.336000,-4.875636
612.336000,-4.905096
615.336000,-4.930531
618.335000,-4.955983
621.335000,-4.981244
624.335000,-5.013077
627.335000,-5.044814
630.335000,-5.075732
633.333000,-5.101208
636.334000,-5.125402
639.334000,-5.140652
642.334000,-5.152274
645.334000,-5.161368
648.332000,-5.159740
651.332000,-5.166328
654.332000,-5.150847
657.333000,-5.126370
660.333000,-5.146839
663.333000,-5.117848
666.331000,-5.102170
669.331000,-5.085400
672.331000,-5.058072
675.332000,-5.029159
678.332000,-4.994624
681.330000,-4.963631
684.330000,-4.942609
687.330000,-4.916257
690.330000,-4.891549
693.330000,-4.866930
696.329000,-4.834435
699.329000,-4.794627
702.329000,-4.742680
705.329000,-4.682482
708.329000,-4.630369
711.329000,-4.592941
714.329000,-4.556033
717.329000,-4.519104
720.327000,-4.472212
723.327000,-4.406011
726.327000,-4.327242
729.327000,-4.271889
732.327000,-4.226285
735.327000,-4.179032
738.327000,-4.123322
741.327000,-4.048728
744.327000,-3.961450
747.325000,-3.897370
750.325000,-3.847262
753.326000,-3.792939
756.326000,-3.724987
759.326000,-3.629248
762.324000,-3.543530
765.324000,-3.480079
768.324000,-3.422462
771.324000,-3.357209
774.325000,-3.271084
777.323000,-3.169379
780.323000,-3.087693
783.323000,-3.025704
786.323000,-2.963055
789.323000,-2.892513
792.322000,-2.798365
795.322000,-2.692710
798.322000,-2.613407
801.322000,-2.546445
804.322000,-2.479275
807.320000,-2.404860
810.320000,-2.313085
813.321000,-2.213280
816.321000,-2.122556
819.321000,-2.047914
822.321000,-1.979411
825.319000,-1.908223
828.319000,-1.830375
831.320000,-1.745586
834.320000,-1.655466
837.320000,-1.566526
840.318000,-1.485014
843.318000,-1.410865
846.318000,-1.340809
849.318000,-1.270124
852.319000,-1.198140
855.319000,-1.124953
858.318000,-1.048129
861.318000,-0.966409
864.316000,-0.888486
867.316000,-0.828234
870.317000,-0.765001
873.317000,-0.678947
876.317000,-0.606372
879.315000,-0.562876
882.315000,-0.507509
885.316000,-0.424110
888.314000,-0.365343
891.315000,-0.293622
894.315000,-0.261945
897.315000,-0.176255
900.315000,-0.120990
903.313000,-0.064681
906.313000,-0.010807
909.314000,0.041378
912.314000,0.090524
915.314000,0.139007
918.314000,0.187620
921.312000,0.233614
924.312000,0.274564
927.312000,0.315562
930.313000,0.356478
933.313000,0.390041
936.311000,0.397934
939.311000,0.454862
942.311000,0.491137
945.311000,0.518571
948.312000,0.544138
951.310000,0.571069
954.311000,0.596096
957.311000,0.620245
960.309000,0.636287
963.309000,0.652353
966.309000,0.666148
969.310000,0.683622
972.310000,0.691882
975.309000,0.702869
978.309000,0.709580
981.309000,0.712646
984.308000,0.717320
987.309000,0.711643
990.309000,0.715770
993.307000,0.710821
996.307000,0.707377
999.307000,0.699670
1002.307000,0.690108
1005.307000,0.679406
1008.306000,0.668341
1011.306000,0.649328
1014.306000,0.631236
1017.306000,0.607630
1020.306000,0.581111
1023.304000,0.557505
1026.305000,0.531666
1029.305000,0.505116
1032.305000,0.480150
1035.305000,0.450721
1038.303000,0.420405
1041.303000,0.386318
1044.303000,0.352993
1047.303000,0.320297
1050.303000,0.282930
1053.303000,0.245145
1056.303000,0.205664
1059.303000,0.164622
1062.301000,0.122367
1065.302000,0.076818
1068.302000,0.031693
1071.302000,-0.013560
1074.302000,-0.064552
1077.302000,-0.114599
1080.300000,-0.160125
1083.300000,-0.211899
1086.301000,-0.266705
1089.301000,-0.314273
1092.301000,-0.359241
1095.299000,-0.423576
1098.299000,-0.477002
1101.299000,-0.523425
1104.300000,-0.586339
1107.300000,-0.645394
1110.298000,-0.702029
1113.298000,-0.765763
1116.298000,-0.810737
1119.298000,-0.884020
1122.298000,-0.949449
1125.297000,-1.015993
1128.297000,-1.081705
1131.297000,-1.145088
1134.297000,-1.208080
1137.297000,-1.265619
1140.297000,-1.322132
1143.296000,-1.379501
1146.296000,-1.435701
1149.296000,-1.493523
1152.296000,-1.554655
1155.296000,-1.619921
1158.294000,-1.689719
1161.294000,-1.761149
1164.296000,-1.831579
1167.294000,-1.895407
1170.294000,-1.952929
1173.293000,-2.005403
1176.293000,-2.056195
1179.293000,-2.107686
1182.294000,-2.162608
1185.294000,-2.223706
1188.294000,-2.292478
1191.292000,-2.364594
1194.292000,-2.429367
1197.292000,-2.484109
1200.292000,-2.534604
1203.293000,-2.576941
1206.291000,-2.619026
1209.291000,-2.666670
1212.291000,-2.716758
1215.291000,-2.770238
1218.291000,-2.834182
1221.292000,-2.899574
1224.290000,-2.951031
1227.290000,-2.994208
1230.290000,-3.031677
1233.290000,-3.062969
1236.290000,-3.096219
1239.288000,-3.132287
1242.289000,-3.172306
1245.289000,-3.218164
1248.289000,-3.267701
1251.289000,-3.322688
1254.288000,-3.364236
1257.288000,-3.400984
1260.287000,-3.429710
1263.287000,-3.454784
1266.287000,-3.478329
1269.287000,-3.497124
1272.287000,-3.520458
1275.286000,-3.540107
1278.286000,-3.561017
1281.287000,-3.580945
1284.285000,-3.605040
1287.285000,-3.626555
1290.285000,-3.648166
1293.285000,-3.670483
1296.285000,-3.691818
1299.286000,-3.709886
1302.284000,-3.725136
1305.284000,-3.739458
1308.283000,-3.744789
1311.283000,-3.757890
1314.283000,-3.757601
1317.283000,-3.762870
1320.284000,-3.757329
1323.284000,-3.759131
1326.282000,-3.760691
1329.282000,-3.744778
1332.282000,-3.738819
1335.282000,-3.726452
1338.283000,-3.713677
1341.281000,-3.698729
1344.281000,-3.686396
1347.281000,-3.665054
1350.281000,-3.648040
1353.281000,-3.623911
1356.279000,-3.602358
1359.280000,-3.580795
1362.280000,-3.560059
1365.280000,-3.541528
1368.280000,-3.522936
1371.278000,-3.500894
1374.278000,-3.481490
1377.279000,-3.467977
1380.279000,-3.442950
1383.279000,-3.417461
1386.279000,-3.395293
1389.277000,-3.367064
1392.277000,-3.330377
1395.277000,-3.287687
1398.278000,-3.240336
1401.278000,-3.190173
1404.276000,-3.146922
1407.276000,-3.109178
1410.276000,-3.075340
1413.276000,-3.047590
1416.277000,-3.013092
1419.277000,-2.980525
1422.275000,-2.941754
1425.275000,-2.900481
1428.275000,-2.850363
1431.275000,-2.790774
1434.275000,-2.732575
1437.274000,-2.678541
1440.274000,-2.632356
1443.274000,-2.590665
1446.274000,-2.552417
1449.274000,-2.514194
1452.272000,-2.473377
1455.273000,-2.426818
1458.273000,-2.376104
1461.273000,-2.316267
1464.273000,-2.252497
1467.273000,-2.192027
1470.271000,-2.135620
1473.271000,-2.087381
1476.272000,-2.042202
1479.272000,-2.000209
1482.272000,-1.956539
1485.270000,-1.911864
1488.270000,-1.863673
1491.270000,-1.809105
1494.271000,-1.755475
1497.271000,-1.696916
1500.269000,-1.638663
1503.269000,-1.582541
1506.269000,-1.528846
1509.268000,-1.475118
1512.268000,-1.433029
1515.269000,-1.388840
1518.269000,-1.342719
1521.269000,-1.301317
1524.268000,-1.255557
1527.268000,-1.211483
1530.268000,-1.164339
1533.268000,-1.119062
1536.268000,-1.070681
1539.266000,-1.024679
1542.267000,-0.975982
1545.267000,-0.931211
1548.265000,-0.885366
1551.265000,-0.861151
1554.267000,-0.802949
1557.265000,-0.771589
1560.265000,-0.734365
1563.265000,-0.680181
1566.265000,-0.643820
1569.265000,-0.608164
1572.264000,-0.573996
1575.264000,-0.565137
1578.264000,-0.516857
1581.264000,-0.488727
1584.264000,-0.440951
1587.262000,-0.415132
1590.262000,-0.388749
1593.263000,-0.378836
1596.263000,-0.352463
1599.263000,-0.306159
1602.262000,-0.283610
1605.262000,-0.279806
1608.262000,-0.270131
1611.261000,-0.220040
1614.261000,-0.201119
1617.261000,-0.183493
1620.261000,-0.166771
1623.261000,-0.153231
1626.259000,-0.151368
1629.259000,-0.134836
1632.260000,-0.112821
1635.260000,-0.103252
1638.260000,-0.102963
1641.260000,-0.085405
1644.258000,-0.074965
1647.258000,-0.074105
1650.259000,-0.085221
1653.259000,-0.068737
1656.258000,-0.080652
1659.258000,-0.066742
1662.258000,-0.067292
1665.258000,-0.081142
1668.256000,-0.086465
1671.257000,-0.097972
1674.257000,-0.100440
1677.257000,-0.108657
1680.257000,-0.119651
1683.255000,-0.127323
1686.255000,-0.136410
1689.256000,-0.149651
1692.256000,-0.153098
1695.256000,-0.173454
1698.256000,-0.188011
1701.254000,-0.204474
1704.254000,-0.219598
1707.254000,-0.236670
1710.255000,-0.258560
1713.255000,-0.275322
1716.253000,-0.294699
1719.253000,-0.316891
1722.253000,-0.340031
1725.253000,-0.356712
1728.254000,-0.387032
1731.252000,-0.410294
1734.252000,-0.436678
1737.252000,-0.463261
1740.252000,-0.482645
1743.251000,-0.512584
1746.251000,-0.519764
1749.252000,-0.572425
1752.252000,-0.603030
1755.251000,-0.632534
1758.251000,-0.663697
1761.251000,-0.696227
1764.249000,-0.726594
1767.250000,-0.764569
1770.250000,-0.784830
1773.250000,-0.825760
1776.250000,-0.860900
1779.248000,-0.899797
1782.248000,-0.938411
1785.248000,-0.975703
1788.249000,-1.013369
1791.249000,-1.053619
1794.247000,-1.092152
1797.247000,-1.129512
1800.247000,-1.168187
1803.247000,-1.204956
1806.247000,-1.241578
1809.248000,-1.277548
1812.246000,-1.310077
1815.246000,-1.346173
1818.246000,-1.378084
1821.246000,-1.412581
1824.246000,-1.445560
1827.245000,-1.477817
1830.246000,-1.515089
1833.244000,-1.552741
1836.244000,-1.591546
1839.244000,-1.630942
1842.244000,-1.673024
1845.244000,-1.715790
1848.245000,-1.757790
1851.243000,-1.800035
1854.243000,-1.837616
1857.242000,-1.874755
1860.242000,-1.909318
1863.242000,-1.942659
1866.243000,-1.972208
1869.243000,-1.999889
1872.243000,-2.027806
1875.241000,-2.052472
1878.241000,-2.081697
1881.241000,-2.109655
1884.241000,-2.137615
1887.242000,-2.166888
1890.240000,-2.195076
1893.240000,-2.226916
1896.240000,-2.260927
1899.240000,-2.295269
1902.240000,-2.328026
1905.239000,-2.361334
1908.239000,-2.391599
1911.239000,-2.419345
1914.239000,-2.443193
1917.239000,-2.465194
1920.239000,-2.483405
1923.237000,-2.503951
1926.238000,-2.520762
1929.238000,-2.538728
1932.238000,-2.552608
1935.238000,-2.565386
1938.236000,-2.577985
1941.236000,-2.592269
1944.237000,-2.601553
1947.237000,-2.613030
1950.237000,-2.623449
1953.235000,-2.635646
1956.236000,-2.644373
1959.236000,-2.652905
1962.234000,-2.661408
1965.235000,-2.670831
1968.235000,-2.677745
1971.235000,-2.680628
1974.235000,-2.688855
1977.233000,-2.684164
1980.234000,-2.688042
1983.234000,-2.692774
1986.234000,-2.682246
1989.234000,-2.671868
1992.232000,-2.689630
1995.232000,-2.681488
1998.232000,-2.683344
2001.232000,-2.668628
2004.233000,-2.679768
2007.233000,-2.661017
2010.231000,-2.654136
2013.231000,-2.642734
2016.231000,-2.636663
2019.231000,-2.640977
2022.232000,-2.621511
2025.231000,-2.607026
2028.231000,-2.598990
2031.231000,-2.585379
2034.229000,-2.576792
2037.229000,-2.563925
2040.229000,-2.551771
2043.230000,-2.539472
2046.230000,-2.522468
2049.228000,-2.515499
2052.228000,-2.497771
2055.229000,-2.477959
2058.227000,-2.459041
2061.228000,-2.442333
2064.228000,-2.422585
2067.228000,-2.396260
2070.228000,-2.371508
2073.227000,-2.345717
2076.227000,-2.314469
2079.225000,-2.284540
2082.226000,-2.255294
2085.226000,-2.221558
2088.226000,-2.192557
2091.226000,-2.161558
2094.226000,-2.134566
2097.224000,-2.108128
2100.226000,-2.082619
2103.226000,-2.057898
2106.224000,-2.032460
2109.224000,-2.011478
2112.224000,-1.987002
2115.224000,-1.962077
2118.224000,-1.936714
2121.223000,-1.909430
2124.223000,-1.881870
2127.223000,-1.850163
2130.222000,-1.822251
2133.222000,-1.789582
2136.222000,-1.755468
2139.223000,-1.721562
2142.223000,-1.686299
2145.221000,-1.650986
2148.221000,-1.616743
2151.221000,-1.584771
2154.221000,-1.548489
2157.221000,-1.517873
2160.220000,-1.483528
2163.220000,-1.453246
2166.220000,-1.429184
2169.220000,-1.403063
2172.220000,-1.371465
2175.220000,-1.348287
2178.219000,-1.319317
2181.219000,-1.291418
2184.219000,-1.267860
2187.219000,-1.240450
2190.219000,-1.210575
2193.217000,-1.185304
2196.217000,-1.155001
2199.218000,-1.127577
2202.218000,-1.102693
2205.218000,-1.073628
2208.216000,-1.044223
2211.216000,-1.017166
2214.216000,-0.992279
2217.216000,-0.959661
2220.216000,-0.933278
2223.216000,-0.907802
2226.216000,-0.881603
2229.216000,-0.859435
2232.214000,-0.836614
2235.214000,-0.807851
2238.215000,-0.789525
2241.215000,-0.764637
2244.215000,-0.745485
2247.213000,-0.724445
2250.213000,-0.707656
2253.213000,-0.686497
2256.214000,-0.669945
2259.214000,-0.653295
2262.214000,-0.637579
2265.212000,-0.622781
2268.213000,-0.604978
2271.211000,-0.599899
2274.211000,-0.592094
2277.212000,-0.581253
2280.212000,-0.577449
2283.212000,-0.567897
2286.212000,-0.535170
2289.210000,-0.525999
2292.210000,-0.531366
2295.211000,-0.525689
2298.211000,-0.517612
2301.211000,-0.515770
2304.209000,-0.504344
2307.209000,-0.475034
2310.209000,-0.497749
2313.209000,-0.487139
2316.210000,-0.487721
2319.208000,-0.476686
2322.208000,-0.472304
2325.208000,-0.461650
2328.208000,-0.468884
2331.208000,-0.482176
2334.207000,-0.467762
2337.207000,-0.488768
2340.207000,-0.489434
2343.207000,-0.491239
2346.207000,-0.504589
2349.207000,-0.507400
2352.205000,-0.507516
2355.206000,-0.517449
2358.206000,-0.522079
2361.206000,-0.513121
2364.206000,-0.538335
2367.204000,-0.546038
2370.204000,-0.559643
2373.205000,-0.556267
2376.205000,-0.575114
2379.205000,-0.587546
2382.205000,-0.599498
2385.204000,-0.613783
2388.204000,-0.626704
2391.202000,-0.640557
2394.203000,-0.650269
2397.203000,-0.666627
2400.203000,-0.680004
2403.203000,-0.695180
2406.203000,-0.711320
2409.201000,-0.726516
2412.202000,-0.744890
2415.202000,-0.758943
2418.202000,-0.778891
2421.202000,-0.795171
2424.200000,-0.809510
2427.200000,-0.830866
2430.200000,-0.850671
2433.201000,-0.867791
2436.201000,-0.890366
2439.199000,-0.909703
2442.199000,-0.930252
2445.199000,-0.955242
2448.199000,-0.974462
2451.200000,-0.997143
2454.198000,-1.020824
2457.198000,-1.039990
2460.198000,-1.062943
2463.198000,-1.085247
2466.198000,-1.108224
2469.197000,-1.128301
2472.198000,-1.149048
2475.197000,-1.170802
2478.197000,-1.193133
2481.197000,-1.213965
2484.197000,-1.237390
2487.195000,-1.254160
2490.196000,-1.274713
2493.196000,-1.292618
2496.196000,-1.311923
2499.195000,-1.331800
2502.195000,-1.352894
2505.195000,-1.371954
2508.195000,-1.389044
2511.194000,-1.406466
2514.194000,-1.424721
2517.194000,-1.444781
2520.194000,-1.460048
2523.193000,-1.477844
2526.193000,-1.497755
2529.194000,-1.518954
2532.194000,-1.533616
2535.192000,-1.555209
2538.192000,-1.576959
2541.192000,-1.595537
2544.192000,-1.615053
2547.192000,-1.635185
2550.191000,-1.653406
2553.191000,-1.674034
2556.191000,-1.692466
2559.191000,-1.711411
2562.191000,-1.731424
2565.189000,-1.748088
2568.190000,-1.767465
2571.190000,-1.784775
2574.190000,-1.798845
2577.190000,-1.814792
2580.190000,-1.827856
2583.189000,-1.843518
2586.189000,-1.855790
2589.190000,-1.867453
2592.188000,-1.878668
2595.188000,-1.891297
2598.188000,-1.903535
2601.188000,-1.913132
2604.188000,-1.921022
2607.187000,-1.932464
2610.187000,-1.931638
2613.187000,-1.944563
2616.187000,-1.950016
2619.187000,-1.957179
2622.185000,-1.963906
2625.185000,-1.967900
2628.186000,-1.969634
2631.186000,-1.979146
2634.186000,-1.980336
2637.186000,-1.975413
2640.184000,-1.985853
2643.184000,-1.991567
2646.185000,-1.985928
2649.185000,-1.993563
2652.185000,-1.983946
2655.183000,-1.983076
2658.183000,-1.994760
2661.183000,-1.986404
2664.183000,-1.972456
2667.184000,-1.987995
